# 181 angles,  1 tensor ranks for 0=projectile
@subtitle   "48Ca(p,p) 25.0 MeV"                                                            
@legend ON
@legend x1 0.2
@legend y1 0.8
@g0 type LOGY
@yaxis ticklabel format power
@xaxis label "Scattering angle (degrees)"
@yaxis label "Cross section (mb/sr)"
@legend string   0 "Partition=  1 Excit=  1 near/far= 1"
#legend string   0 "Lab energy =   25.0000"
@s0 linestyle   1
#  Theta       sigma       iT11        T20         T21         T22         Kyy for projectile
  0.1000E-01   1.000    
   1.000       1.003    
   2.000      0.9902    
   3.000      0.9546    
   4.000      0.9040    
   5.000      0.8472    
   6.000      0.7922    
   7.000      0.7452    
   8.000      0.7106    
   9.000      0.6912    
   10.00      0.6877    
   11.00      0.6996    
   12.00      0.7247    
   13.00      0.7600    
   14.00      0.8012    
   15.00      0.8440    
   16.00      0.8834    
   17.00      0.9147    
   18.00      0.9339    
   19.00      0.9374    
   20.00      0.9226    
   21.00      0.8886    
   22.00      0.8352    
   23.00      0.7642    
   24.00      0.6785    
   25.00      0.5823    
   26.00      0.4810    
   27.00      0.3810    
   28.00      0.2888    
   29.00      0.2116    
   30.00      0.1562    
   31.00      0.1288    
   32.00      0.1348    
   33.00      0.1783    
   34.00      0.2621    
   35.00      0.3871    
   36.00      0.5525    
   37.00      0.7558    
   38.00      0.9925    
   39.00       1.257    
   40.00       1.541    
   41.00       1.837    
   42.00       2.136    
   43.00       2.427    
   44.00       2.702    
   45.00       2.951    
   46.00       3.167    
   47.00       3.341    
   48.00       3.468    
   49.00       3.545    
   50.00       3.569    
   51.00       3.539    
   52.00       3.458    
   53.00       3.329    
   54.00       3.157    
   55.00       2.949    
   56.00       2.713    
   57.00       2.457    
   58.00       2.191    
   59.00       1.925    
   60.00       1.668    
   61.00       1.428    
   62.00       1.216    
   63.00       1.037    
   64.00      0.8972    
   65.00      0.8018    
   66.00      0.7535    
   67.00      0.7536    
   68.00      0.8017    
   69.00      0.8961    
   70.00       1.033    
   71.00       1.209    
   72.00       1.417    
   73.00       1.652    
   74.00       1.905    
   75.00       2.168    
   76.00       2.435    
   77.00       2.698    
   78.00       2.948    
   79.00       3.179    
   80.00       3.385    
   81.00       3.561    
   82.00       3.701    
   83.00       3.805    
   84.00       3.868    
   85.00       3.890    
   86.00       3.873    
   87.00       3.816    
   88.00       3.722    
   89.00       3.595    
   90.00       3.439    
   91.00       3.257    
   92.00       3.056    
   93.00       2.841    
   94.00       2.617    
   95.00       2.390    
   96.00       2.165    
   97.00       1.948    
   98.00       1.743    
   99.00       1.553    
   100.0       1.384    
   101.0       1.237    
   102.0       1.115    
   103.0       1.020    
   104.0      0.9509    
   105.0      0.9092    
   106.0      0.8936    
   107.0      0.9029    
   108.0      0.9351    
   109.0      0.9877    
   110.0       1.058    
   111.0       1.142    
   112.0       1.238    
   113.0       1.340    
   114.0       1.447    
   115.0       1.554    
   116.0       1.658    
   117.0       1.755    
   118.0       1.844    
   119.0       1.920    
   120.0       1.984    
   121.0       2.032    
   122.0       2.064    
   123.0       2.080    
   124.0       2.078    
   125.0       2.060    
   126.0       2.026    
   127.0       1.978    
   128.0       1.916    
   129.0       1.844    
   130.0       1.764    
   131.0       1.677    
   132.0       1.586    
   133.0       1.494    
   134.0       1.403    
   135.0       1.317    
   136.0       1.236    
   137.0       1.165    
   138.0       1.103    
   139.0       1.053    
   140.0       1.017    
   141.0      0.9941    
   142.0      0.9863    
   143.0      0.9934    
   144.0       1.015    
   145.0       1.051    
   146.0       1.100    
   147.0       1.161    
   148.0       1.232    
   149.0       1.312    
   150.0       1.400    
   151.0       1.492    
   152.0       1.587    
   153.0       1.682    
   154.0       1.777    
   155.0       1.868    
   156.0       1.954    
   157.0       2.033    
   158.0       2.104    
   159.0       2.166    
   160.0       2.217    
   161.0       2.257    
   162.0       2.287    
   163.0       2.305    
   164.0       2.312    
   165.0       2.308    
   166.0       2.295    
   167.0       2.274    
   168.0       2.245    
   169.0       2.211    
   170.0       2.172    
   171.0       2.130    
   172.0       2.087    
   173.0       2.045    
   174.0       2.005    
   175.0       1.968    
   176.0       1.936    
   177.0       1.910    
   178.0       1.891    
   179.0       1.879    
   180.0       1.875    
 END
